time (s)	theta (A)	maj axis/z0	min axis/z0	crossing#mod 255
9248.098584	197.318329	1.555992	-0.133650	167
9250.189307	197.460922	1.555651	-0.130378	169
9252.278170	197.380661	1.553327	-0.127072	171
9254.365894	197.149521	1.553809	-0.123562	173
9256.453107	197.168137	1.555203	-0.120625	175
9258.540887	197.111984	1.548538	-0.119979	177
9260.630967	196.993271	1.544190	-0.119015	179
9262.721541	196.974899	1.544465	-0.115166	181
9264.809766	196.950790	1.547026	-0.111516	183
9266.896472	196.811859	1.547926	-0.108819	185
9268.983971	196.935425	1.544006	-0.106747	187
9271.073043	196.709946	1.539821	-0.105539	189
9273.162807	196.619797	1.538221	-0.102588	191
9275.252363	196.718704	1.535890	-0.099528	193
9277.341813	196.929047	1.533042	-0.097197	195
9279.429901	196.912918	1.528944	-0.094027	197
9281.520025	197.061905	1.528377	-0.092411	199
9283.608661	197.053574	1.525560	-0.089581	201
9285.697515	196.970322	1.525629	-0.087773	203
9287.783822	196.706192	1.525706	-0.084816	205
9289.871395	196.244507	1.525132	-0.082798	207
9291.958223	195.937622	1.520382	-0.080053	209
9294.046143	195.827637	1.517684	-0.076961	211
9296.135837	195.961655	1.514765	-0.073712	213
9298.226577	196.335953	1.512608	-0.072209	215
9300.315538	196.673889	1.512221	-0.070124	217
9302.403860	196.368698	1.513999	-0.068620	219
9304.490335	195.776657	1.509501	-0.065310	221
9306.577968	195.590790	1.504764	-0.059924	223
9308.666371	195.594940	1.502530	-0.058709	225
9310.755915	195.828552	1.500293	-0.055968	227
9312.845725	195.935501	1.498632	-0.054429	229
9314.934665	196.030380	1.498110	-0.052286	231
9317.023631	196.033386	1.496143	-0.050196	233
9319.111893	195.901154	1.494496	-0.047631	235
9321.200414	195.872330	1.490780	-0.045408	237
9323.288788	195.797012	1.488874	-0.043417	239
9325.377169	195.642456	1.486870	-0.040450	241
9327.465114	195.582016	1.487122	-0.038260	243
9329.552820	195.480087	1.486110	-0.035515	245
9331.639888	195.515350	1.484788	-0.033199	247
9333.728563	195.626694	1.480547	-0.030281	249
9335.815396	195.732498	1.473665	-0.028428	251
9337.905177	195.533554	1.469699	-0.026522	253
9339.995025	195.445145	1.468585	-0.023967	255
9342.084403	195.290421	1.468636	-0.021757	1
9344.172642	195.317902	1.468547	-0.018897	3
9346.259722	195.267807	1.469281	-0.016476	5
9348.347319	195.514435	1.472322	-0.014669	7
9350.433936	195.528519	1.465203	-0.012793	9
9352.523048	195.544571	1.461565	-0.009603	11
9354.610486	195.404755	1.457224	-0.008269	13
9356.699371	195.339371	1.453468	-0.005443	15
9358.787802	195.281921	1.452711	-0.002923	17
9360.876142	195.209244	1.449636	-0.000743	19
9362.966143	195.151901	1.449070	0.001875	21
9365.052378	195.104401	1.446026	0.004388	23
9367.140184	195.147827	1.444284	0.006465	25
9369.228548	195.167572	1.441254	0.008806	27
9371.317146	195.247543	1.440485	0.010917	29
9373.406460	195.122726	1.437014	0.014059	31
9375.496088	195.242401	1.435371	0.017032	33
9377.585232	195.265045	1.431875	0.019006	35
9379.673640	195.322678	1.433407	0.020452	37
9381.760910	195.198959	1.434803	0.022545	39
9383.847604	195.010590	1.430017	0.025560	41
9385.934439	194.981110	1.427610	0.027823	43
9388.022468	195.066025	1.424863	0.029829	45
9390.110836	195.086517	1.424422	0.031891	47
9392.199406	195.096008	1.422180	0.033842	49
9394.288244	195.041534	1.419773	0.035581	51
9396.376928	195.015411	1.416948	0.037674	53
9398.465145	194.972809	1.415722	0.040210	55
9400.553408	195.052841	1.412656	0.042041	57
9402.641036	195.194672	1.412464	0.044146	59
9404.728998	195.164230	1.411605	0.046623	61
9406.816473	195.313950	1.409994	0.048810	63
9408.904217	195.443207	1.407163	0.051013	65
9410.992134	195.534256	1.404111	0.053202	67
9413.080943	195.368530	1.400268	0.055250	69
9415.170202	195.165359	1.398125	0.058079	71
9417.259312	194.977325	1.396940	0.060018	73
9419.348643	194.888367	1.395107	0.061867	75
9421.436787	194.874634	1.393263	0.063899	77
9423.524349	194.893143	1.393495	0.065640	79
9425.611473	195.070511	1.394066	0.067705	81
9427.698684	195.320663	1.393879	0.069710	83
9429.785971	195.516647	1.394186	0.071765	85
9431.873523	195.548843	1.391247	0.073348	87
9433.961276	195.712418	1.386034	0.076039	89
9436.049289	195.784485	1.384333	0.077807	91
9438.137336	195.657562	1.381991	0.080017	93
9440.225503	195.684021	1.379307	0.082092	95
9442.313696	195.657196	1.377831	0.083889	97
9444.402141	195.584549	1.376984	0.086173	99
9446.490657	195.544983	1.374376	0.088153	101
9448.579504	195.433472	1.371469	0.090457	103
9450.668785	195.335037	1.368405	0.092910	105
9452.757494	195.391769	1.364812	0.094134	107
9454.845835	195.429108	1.362723	0.096247	109
9456.933728	195.573212	1.362725	0.098386	111
9459.020853	195.465149	1.360909	0.100570	113
9461.107599	195.711456	1.359958	0.102541	115
9463.194462	195.827698	1.358103	0.104482	117
9465.282020	195.858658	1.355860	0.106181	119
9467.369812	195.995697	1.354689	0.107794	121
9469.458015	196.101898	1.353579	0.109481	123
9471.546199	196.095444	1.352290	0.111789	125
9473.634011	196.016479	1.350498	0.113504	127
9475.722177	196.279160	1.349637	0.115181	129
9477.810284	196.230606	1.348793	0.117766	131
9479.897952	196.340820	1.346469	0.119132	133
9481.985729	196.449951	1.345043	0.123381	135
9484.073289	196.528702	1.340128	0.122740	137
9486.161610	196.552795	1.335327	0.125795	139
9488.250606	196.408630	1.332297	0.127706	141
9490.339462	196.202530	1.331785	0.129623	143
9492.428813	196.025818	1.331269	0.131981	145
9494.517489	195.931732	1.329534	0.133685	147
9496.605828	195.858414	1.327370	0.135028	149
9498.693828	195.898331	1.325162	0.136432	151
9500.781007	196.076950	1.325289	0.137725	153
9502.867984	196.432159	1.323879	0.139447	155
9504.955084	196.528442	1.322991	0.140902	157
9507.042443	196.843292	1.321028	0.142723	159
9509.129985	196.853592	1.320535	0.144789	161
9511.217836	197.070862	1.316281	0.146318	163
9513.305716	197.065002	1.315530	0.148009	165
9515.393661	197.154861	1.313362	0.149900	167
9517.482023	197.088272	1.311401	0.151863	169
9519.570483	197.053696	1.308878	0.153494	171
9521.659002	197.058655	1.305408	0.155291	173
9523.747411	196.955917	1.304116	0.157998	175
9525.836162	196.987015	1.302541	0.160416	177
9527.924500	196.973679	1.300834	0.162513	179
9530.012708	197.118637	1.298928	0.164157	181
9532.100102	197.148361	1.298131	0.166091	183
9534.187131	197.361908	1.296666	0.167692	185
9536.274090	197.457520	1.295331	0.169334	187
9538.361092	197.749069	1.291701	0.171073	189
9540.448559	197.907349	1.290182	0.172714	191
9542.535899	198.169525	1.287751	0.173995	193
9544.623493	198.237167	1.284761	0.175354	195
9546.711220	198.378922	1.280125	0.176502	197
9548.799174	198.549194	1.277361	0.177676	199
9550.887089	198.552429	1.275885	0.179319	201
9552.975038	198.728821	1.272857	0.181014	203
